Data run started at:  Tuesday, October 10, 2017	4:39:42 PM
magnet(A)	lockin1(V)	lockin2(V)	time (sec)
NaN	NaN	NaN	7.315000
0.143621	0.833776	0.007289	7.736000
0.143643	0.834249	0.007219	8.236000
0.143774	0.834045	0.007420	8.736000
0.143856	0.833583	0.007589	9.236000
0.143738	0.833247	0.007610	9.736000
0.143802	0.832822	0.007409	10.236000
0.143918	0.832672	0.007314	10.736000
0.143780	0.833369	0.007460	11.237000
0.143793	0.833904	0.007336	11.736000
0.143732	0.833822	0.007275	12.236000
0.143759	0.833545	0.007261	12.736000
0.143820	0.832851	0.007198	13.236000
0.145324	0.832826	0.007240	13.736000
0.150926	0.833033	0.007482	14.236000
0.169572	0.833790	0.007570	14.736000
0.194518	0.834495	0.007243	15.236000
0.219587	0.833869	0.007273	15.737000
0.241921	0.832342	0.007527	16.236000
0.261936	0.830738	0.007993	16.736000
0.281638	0.829242	0.008369	17.236000
0.297336	0.828312	0.008636	17.736000
0.315952	0.827288	0.008987	18.236000
0.341135	0.826649	0.009348	18.736000
0.357848	0.825934	0.009644	19.236000
0.375491	0.824910	0.009677	19.736000
0.395369	0.823364	0.009891	20.236000
0.419169	0.821085	0.010532	20.736000
0.440981	0.818495	0.011186	21.236000
0.465049	0.816038	0.011625	21.736000
0.481357	0.813872	0.011930	22.236000
0.501132	0.812057	0.012504	22.736000
0.521841	0.810598	0.012955	23.237000
0.541066	0.809326	0.013546	23.736000
0.562494	0.807887	0.014141	24.236000
0.589855	0.805696	0.014444	24.736000
0.613080	0.803009	0.014402	25.236000
0.635799	0.799847	0.014860	25.736000
0.649658	0.796910	0.015731	26.236000
0.678210	0.795061	0.016075	26.736000
0.702246	0.793128	0.016539	27.236000
0.723093	0.791487	0.016813	27.736000
0.739774	0.790043	0.017110	28.236000
0.763297	0.788022	0.017704	28.736000
0.782244	0.785544	0.018471	29.236000
0.794441	0.783094	0.019270	29.736000
0.817581	0.780736	0.019787	30.236000
0.843391	0.778280	0.019886	30.736000
0.858740	0.775992	0.020501	31.236000
0.875150	0.774493	0.021145	31.736000
0.906689	0.772679	0.021362	32.236000
0.925320	0.771100	0.022128	32.736000
0.939337	0.769274	0.022586	33.236000
0.956908	0.766963	0.022601	33.736000
0.981517	0.764424	0.023252	34.236000
1.000144	0.761638	0.023435	34.736000
1.019440	0.759440	0.023744	35.236000
1.041296	0.757652	0.024352	35.736000
1.063585	0.756308	0.024748	36.236000
1.092398	0.755191	0.025348	36.736000
1.108658	0.753461	0.026028	37.236000
1.125745	0.750819	0.026615	37.736000
1.148972	0.748379	0.027105	38.236000
1.167181	0.745266	0.027464	38.736000
1.186749	0.743313	0.027776	39.236000
1.208380	0.741771	0.028036	39.736000
1.229922	0.740125	0.028749	40.236000
1.254703	0.738324	0.029245	40.736000
1.273260	0.736542	0.029767	41.236000
1.291614	0.734173	0.030556	41.736000
1.314127	0.731698	0.030967	42.236000
1.333929	0.729531	0.031667	42.736000
1.355029	0.728075	0.032607	43.236000
1.373725	0.726808	0.032972	43.736000
1.392382	0.724898	0.033127	44.236000
1.415107	0.722248	0.033655	44.736000
1.435359	0.719381	0.034003	45.236000
1.456833	0.717326	0.034206	45.737000
1.475141	0.716188	0.034634	46.236000
1.493405	0.715627	0.035212	46.736000
1.515723	0.714664	0.035780	47.236000
1.536636	0.712950	0.036156	47.737000
1.557464	0.709946	0.036353	48.236000
1.578690	0.706648	0.036864	48.736000
1.600164	0.704305	0.037514	49.236000
1.620920	0.703988	0.037789	49.736000
1.640983	0.703831	0.038572	50.236000
1.660556	0.702115	0.039061	50.736000
1.680794	0.698965	0.039678	51.237000
1.701652	0.696241	0.040390	51.736000
1.722485	0.694588	0.040720	52.236000
1.742612	0.693329	0.041173	52.736000
1.765009	0.692463	0.041434	53.237000
1.788318	0.691951	0.041838	53.736000
1.809384	0.691291	0.042420	54.236000
1.829411	0.689189	0.042928	54.736000
1.850755	0.685948	0.043334	55.236000
1.873240	0.683110	0.043870	55.736000
1.892545	0.681142	0.044387	56.236000
1.912356	0.679894	0.044997	56.737000
1.933133	0.678775	0.045406	57.236000
1.954749	0.677786	0.046047	57.736000
1.978415	0.676007	0.047174	58.236000
1.998505	0.674263	0.047800	58.736000
2.018807	0.672389	0.048045	59.236000
2.040235	0.671218	0.048211	59.737000
2.060917	0.669897	0.048345	60.236000
2.082521	0.668761	0.048552	60.736000
2.103012	0.667554	0.049264	61.236000
2.125436	0.665948	0.050048	61.736000
2.146077	0.664235	0.050931	62.237000
2.167109	0.662423	0.051735	62.736000
2.187930	0.660884	0.052342	63.236000
2.208651	0.659905	0.052617	63.736000
2.230719	0.659384	0.052884	64.237000
2.251573	0.658115	0.053244	64.736000
2.274907	0.656170	0.053921	65.236000
2.297358	0.654039	0.054307	65.736000
2.318646	0.652714	0.054436	66.236000
2.340125	0.651834	0.055012	66.736000
2.363040	0.651529	0.055671	67.236000
2.386029	0.650412	0.056360	67.736000
2.410400	0.649100	0.056796	68.236000
2.431428	0.647221	0.057368	68.736000
2.453577	0.645590	0.058055	69.236000
2.475796	0.644423	0.058388	69.736000
2.499874	0.643193	0.058886	70.236000
2.523376	0.642715	0.059364	70.736000
2.545737	0.641847	0.059944	71.236000
2.567239	0.640572	0.060733	71.736000
2.588874	0.639278	0.061056	72.237000
2.609874	0.637938	0.061453	72.736000
2.632502	0.636572	0.062006	73.236000
2.654788	0.635546	0.062691	73.736000
2.676504	0.635131	0.063198	74.236000
2.697522	0.634457	0.063648	74.736000
2.718320	0.634060	0.064013	75.236000
2.739116	0.633119	0.064541	75.736000
2.762207	0.632057	0.065275	76.236000
2.785736	0.631174	0.065802	76.736000
2.807492	0.630071	0.065973	77.236000
2.828467	0.628280	0.066364	77.736000
2.849664	0.626961	0.066916	78.236000
2.870933	0.625271	0.067122	78.736000
2.891389	0.623645	0.067147	79.236000
2.912002	0.622748	0.067538	79.736000
2.936112	0.622343	0.068443	80.236000
2.957470	0.622418	0.069176	80.736000
2.977967	0.622438	0.070034	81.237000
3.000046	0.621803	0.070636	81.736000
3.021536	0.620312	0.071300	82.237000
3.040994	0.619112	0.071849	82.736000
3.064444	0.617608	0.072281	83.236000
3.086913	0.616406	0.072624	83.736000
3.109016	0.615647	0.073094	84.236000
3.131418	0.615672	0.073713	84.736000
3.153249	0.615739	0.074070	85.236000
3.175410	0.615197	0.074501	85.736000
3.196070	0.613991	0.074867	86.236000
3.217859	0.612940	0.075622	86.736000
3.238898	0.611326	0.076383	87.236000
3.261127	0.610341	0.076663	87.736000
3.281697	0.610125	0.076885	88.236000
3.301886	0.610222	0.077183	88.736000
3.323147	0.610087	0.078000	89.236000
3.343598	0.609572	0.078404	89.737000
3.365979	0.608381	0.078850	90.236000
3.387823	0.606948	0.079463	90.736000
3.409438	0.605833	0.080040	91.237000
3.429888	0.605461	0.080197	91.736000
3.450743	0.605534	0.080607	92.237000
3.472821	0.605948	0.081314	92.736000
3.494022	0.605738	0.082169	93.236000
3.517595	0.604366	0.082646	93.736000
3.539192	0.602295	0.083104	94.236000
3.559889	0.600848	0.083902	94.736000
3.580925	0.601011	0.084502	95.236000
3.601236	0.601260	0.085432	95.736000
3.622269	0.600909	0.086203	96.236000
3.643735	0.600735	0.086245	96.736000
3.666077	0.600156	0.086354	97.236000
3.689648	0.599117	0.086752	97.736000
3.711429	0.598396	0.087382	98.236000
3.733013	0.597849	0.087639	98.736000
3.754374	0.597057	0.087864	99.236000
3.775808	0.596171	0.088264	99.736000
3.800989	0.595929	0.088741	100.236000
3.822971	0.595796	0.089271	100.737000
3.845224	0.595403	0.089653	101.236000
3.867172	0.595053	0.090057	101.736000
3.890808	0.594826	0.090706	102.236000
3.916126	0.594548	0.090828	102.736000
3.938585	0.594025	0.091458	103.236000
3.960140	0.593613	0.092540	103.736000
3.982041	0.592940	0.093346	104.236000
4.005649	0.592058	0.093988	104.736000
4.029146	0.590657	0.094377	105.236000
4.051001	0.590122	0.094988	105.736000
4.071765	0.590425	0.095325	106.237000
4.092985	0.590844	0.095616	106.736000
4.112219	0.590970	0.095956	107.236000
4.133646	0.591209	0.096242	107.736000
4.156848	0.591044	0.096439	108.236000
4.177945	0.590786	0.096661	108.736000
4.199289	0.590764	0.097503	109.236000
4.221115	0.590372	0.098372	109.736000
4.242371	0.589122	0.099231	110.236000
4.263491	0.587900	0.100022	110.736000
4.284567	0.586896	0.100536	111.236000
4.307990	0.586090	0.101079	111.736000
4.329379	0.585301	0.101921	112.236000
4.350385	0.584758	0.102355	112.736000
4.370609	0.585050	0.102315	113.236000
4.391605	0.585072	0.102371	113.736000
4.412939	0.585829	0.102791	114.236000
4.433917	0.586720	0.103501	114.736000
4.457630	0.587589	0.104067	115.236000
4.479962	0.588513	0.104714	115.736000
4.500838	0.589146	0.105387	116.237000
4.522656	0.589300	0.105940	116.737000
4.543046	0.588546	0.106278	117.236000
4.564703	0.587998	0.106816	117.736000
4.586832	0.587426	0.107457	118.236000
4.609782	0.586980	0.108119	118.736000
4.630497	0.586503	0.108768	119.236000
4.651769	0.585585	0.109221	119.736000
4.673287	0.585085	0.109495	120.236000
4.695017	0.584720	0.109900	120.736000
4.717216	0.584863	0.110196	121.236000
4.738399	0.584819	0.110837	121.736000
4.761798	0.584898	0.111288	122.236000
4.783320	0.585457	0.111707	122.736000
4.804488	0.585309	0.112137	123.236000
4.825602	0.585268	0.112738	123.736000
4.846524	0.585605	0.113210	124.236000
4.869234	0.585817	0.113607	124.736000
4.892782	0.585706	0.114199	125.236000
4.914137	0.585456	0.114988	125.736000
4.935865	0.585736	0.114946	126.236000
4.957959	0.586091	0.115284	126.736000
4.979861	0.586395	0.116058	127.236000
5.002521	0.586833	0.116594	127.736000
5.025240	0.586825	0.117209	128.236000
5.046312	0.586591	0.117834	128.736000
5.068230	0.586777	0.118460	129.236000
5.089719	0.585865	0.118989	129.736000
5.111963	0.584896	0.119572	130.236000
5.134281	0.584570	0.120177	130.736000
5.157244	0.584172	0.120779	131.236000
5.180405	0.583731	0.121318	131.736000
5.201453	0.582668	0.121809	132.236000
5.222260	0.581962	0.122237	132.736000
5.243795	0.581962	0.122754	133.236000
5.263470	0.582163	0.122944	133.736000
5.285051	0.582635	0.123194	134.237000
5.307859	0.583708	0.123805	134.736000
5.328884	0.585151	0.124272	135.236000
5.351377	0.586720	0.124547	135.736000
5.369939	0.588343	0.125118	136.236000
5.392493	0.590458	0.126067	136.737000
5.412999	0.593449	0.126735	137.236000
5.434274	0.595714	0.127366	137.736000
5.459250	0.597247	0.127571	138.236000
5.484335	0.598632	0.128146	138.736000
5.508023	0.599184	0.128732	139.236000
5.528867	0.599428	0.129284	139.736000
5.550698	0.598795	0.129557	140.236000
5.573838	0.597292	0.130140	140.736000
5.597159	0.596223	0.130733	141.236000
5.618262	0.594927	0.131199	141.736000
5.640479	0.593708	0.131612	142.236000
5.660620	0.592983	0.131858	142.736000
5.682294	0.592406	0.132437	143.236000
5.703900	0.592127	0.132685	143.736000
5.727587	0.591789	0.133283	144.237000
5.750480	0.590814	0.134080	144.736000
5.773311	0.589291	0.134865	145.236000
5.794273	0.588056	0.135652	145.736000
5.818682	0.587120	0.135890	146.236000
5.840224	0.585939	0.136396	146.736000
5.862128	0.585092	0.137033	147.236000
5.882740	0.585541	0.137521	147.736000
5.902029	0.586956	0.137990	148.236000
5.924380	0.589289	0.138641	148.736000
5.946764	0.592156	0.139388	149.236000
5.968292	0.595325	0.139612	149.737000
5.989605	0.598837	0.139800	150.236000
6.012438	0.602659	0.140031	150.736000
6.034713	0.606043	0.140494	151.236000
6.055230	0.609128	0.141214	151.736000
6.079391	0.611794	0.142087	152.236000
6.102263	0.614136	0.142612	152.736000
6.120037	0.616547	0.142994	153.236000
6.140540	0.618574	0.143333	153.736000
6.167264	0.620010	0.143806	154.236000
6.187118	0.621218	0.144399	154.736000
6.206767	0.622578	0.144928	155.236000
6.229084	0.623580	0.145537	155.736000
6.253167	0.624514	0.146199	156.236000
6.275072	0.625076	0.146612	156.736000
6.298517	0.625398	0.147118	157.236000
6.319400	0.625491	0.147643	157.736000
6.339326	0.624997	0.148316	158.236000
6.360833	0.624380	0.148752	158.736000
6.380957	0.622919	0.149000	159.236000
6.402963	0.620557	0.149267	159.736000
6.428311	0.618006	0.149577	160.236000
6.449436	0.615505	0.150121	160.736000
6.469522	0.612593	0.150426	161.236000
6.491001	0.609872	0.151216	161.737000
6.511876	0.606876	0.152018	162.236000
6.540360	0.604160	0.152467	162.736000
6.560807	0.601752	0.152718	163.236000
6.580900	0.600035	0.152859	163.736000
6.601193	0.597981	0.153690	164.236000
6.621886	0.596447	0.154245	164.736000
6.644731	0.595969	0.154754	165.236000
6.666797	0.596703	0.155140	165.736000
6.687690	0.597677	0.155608	166.236000
6.710201	0.599223	0.156174	166.736000
6.730531	0.601314	0.156666	167.236000
6.752836	0.604250	0.157117	167.736000
6.774817	0.607949	0.157789	168.236000
6.795890	0.612090	0.157946	168.737000
6.817563	0.616836	0.158437	169.236000
6.839261	0.622594	0.158768	169.736000
6.862935	0.628303	0.159028	170.236000
6.884485	0.633769	0.159592	170.736000
6.905819	0.639481	0.160145	171.236000
6.926935	0.645754	0.160742	171.736000
6.950988	0.651726	0.161393	172.236000
6.973361	0.657439	0.162010	172.736000
6.995614	0.663011	0.162828	173.236000
7.017922	0.667572	0.163555	173.736000
7.039402	0.671738	0.163849	174.236000
7.061251	0.675858	0.164174	174.736000
7.084245	0.679340	0.164233	175.237000
7.105987	0.682729	0.164868	175.736000
7.128285	0.685522	0.165591	176.236000
7.150608	0.687698	0.166093	176.736000
7.171997	0.689004	0.166635	177.236000
7.194121	0.689407	0.167170	177.736000
7.217826	0.689863	0.167706	178.236000
7.241160	0.689461	0.168088	178.736000
7.262594	0.688596	0.168481	179.236000
7.283262	0.687096	0.169041	179.736000
7.304135	0.684771	0.169761	180.236000
7.325787	0.681609	0.170195	180.736000
7.349877	0.678308	0.170874	181.236000
7.371633	0.674538	0.171371	181.737000
7.393331	0.670383	0.171951	182.236000
7.415259	0.665683	0.172712	182.736000
7.436890	0.661179	0.173153	183.236000
7.459874	0.656337	0.173647	183.736000
7.483273	0.651734	0.173920	184.236000
7.505927	0.647571	0.174257	184.736000
7.527855	0.643189	0.174730	185.236000
7.550474	0.638597	0.175399	185.736000
7.572176	0.633814	0.175725	186.236000
7.596036	0.629958	0.176491	186.736000
7.619514	0.625846	0.177172	187.236000
7.641742	0.621673	0.177671	187.736000
7.663193	0.619139	0.178305	188.236000
7.684396	0.617153	0.179066	188.736000
7.707272	0.615646	0.179514	189.236000
7.730812	0.614999	0.179897	189.736000
7.752508	0.615200	0.180255	190.236000
7.773873	0.616301	0.180556	190.737000
7.796270	0.618676	0.180796	191.236000
7.819207	0.621742	0.181265	191.736000
7.841896	0.625789	0.182272	192.236000
7.864910	0.630588	0.183158	192.736000
7.886669	0.636616	0.183979	193.236000
7.908846	0.643331	0.184565	193.736000
7.931175	0.651327	0.184563	194.237000
7.953132	0.659814	0.184671	194.736000
7.975787	0.668558	0.184902	195.236000
7.999055	0.677979	0.185208	195.736000
8.020084	0.687594	0.185726	196.236000
8.041635	0.697030	0.186282	196.736000
8.063070	0.707390	0.186970	197.236000
8.084833	0.717823	0.187350	197.736000
8.107725	0.727727	0.187822	198.236000
8.129334	0.736918	0.188175	198.736000
8.150208	0.745883	0.188525	199.236000
8.171243	0.754700	0.189186	199.736000
8.191909	0.763096	0.189472	200.236000
8.214491	0.771180	0.189870	200.736000
8.236468	0.779236	0.190089	201.236000
8.260230	0.786392	0.190439	201.736000
8.281933	0.793242	0.191091	202.236000
8.302696	0.799923	0.191619	202.736000
8.323961	0.805338	0.192166	203.236000
8.345082	0.810306	0.192571	203.736000
8.368285	0.813980	0.193252	204.237000
8.391599	0.816829	0.193659	204.736000
8.414302	0.819292	0.194007	205.236000
8.436419	0.821003	0.194415	205.736000
8.458415	0.822069	0.195057	206.237000
8.481095	0.822799	0.195824	206.736000
8.506267	0.822381	0.196795	207.236000
8.528734	0.821316	0.197840	207.736000
8.551172	0.819735	0.198120	208.236000
8.572848	0.817410	0.198521	208.736000
8.597208	0.814419	0.199398	209.236000
8.621009	0.811326	0.199891	209.736000
8.642792	0.808065	0.200364	210.236000
8.663767	0.804030	0.200711	210.736000
8.685544	0.799220	0.201318	211.236000
8.709214	0.793952	0.202065	211.736000
8.734409	0.788368	0.202772	212.236000
8.756978	0.782455	0.203560	212.736000
8.780005	0.776592	0.204094	213.236000
8.803275	0.770121	0.204863	213.736000
8.827334	0.763007	0.205464	214.236000
8.849758	0.756388	0.205740	214.736000
8.871624	0.749565	0.206291	215.236000
8.894449	0.742268	0.206619	215.736000
8.916945	0.734793	0.206869	216.237000
8.940177	0.727014	0.207507	216.736000
8.961558	0.718918	0.208260	217.236000
8.982906	0.710934	0.208889	217.736000
9.004722	0.702750	0.209598	218.236000
9.025880	0.694913	0.210077	218.737000
9.048152	0.686763	0.210545	219.236000
9.071923	0.679328	0.211099	219.736000
9.094513	0.672988	0.211848	220.236000
9.115741	0.667103	0.212260	220.736000
9.137850	0.660882	0.212682	221.236000
9.159630	0.655914	0.213183	221.736000
9.181814	0.651282	0.213765	222.236000
9.204852	0.646895	0.214617	222.736000
9.227178	0.643323	0.214833	223.236000
9.248670	0.642163	0.214893	223.737000
9.269753	0.642390	0.215514	224.236000
9.291300	0.642750	0.216218	224.736000
9.313910	0.644463	0.216666	225.237000
9.337478	0.647255	0.217001	225.736000
9.361189	0.651709	0.217403	226.236000
9.382982	0.658464	0.218014	226.736000
9.404237	0.666417	0.218566	227.236000
9.426391	0.674566	0.218962	227.736000
9.450181	0.683030	0.219192	228.236000
9.473870	0.692564	0.219490	228.737000
9.496194	0.704232	0.219855	229.236000
9.517369	0.717330	0.220309	229.737000
9.539292	0.730955	0.220611	230.236000
9.558696	0.744869	0.220722	230.736000
9.581092	0.758872	0.221023	231.236000
9.603839	0.773732	0.221491	231.736000
9.626668	0.789629	0.221959	232.236000
9.648469	0.805216	0.222309	232.736000
9.670352	0.821404	0.222938	233.236000
9.691000	0.837340	0.223757	233.736000
9.713791	0.852409	0.224349	234.236000
9.736520	0.866880	0.224561	234.736000
9.759235	0.881994	0.224991	235.236000
9.780829	0.897595	0.225247	235.736000
9.802746	0.913636	0.225470	236.236000
9.824656	0.929616	0.225929	236.736000
9.847687	0.944782	0.226488	237.236000
9.871856	0.958614	0.227090	237.736000
9.893796	0.971199	0.227743	238.236000
9.915958	0.983452	0.228537	238.736000
9.938565	0.995673	0.228847	239.236000
9.963173	1.007897	0.229525	239.736000
9.985826	1.020293	0.230048	240.236000
10.006951	1.031077	0.230640	240.736000
10.026746	1.041263	0.231479	241.236000
10.050124	1.049863	0.231795	241.736000
10.070721	1.058120	0.232422	242.236000
10.092861	1.066520	0.232977	242.736000
10.116473	1.074149	0.233481	243.236000
10.138297	1.081079	0.233816	243.736000
10.160992	1.087679	0.234448	244.237000
10.182110	1.093065	0.234950	244.736000
10.204317	1.097546	0.235594	245.236000
10.226315	1.101006	0.236380	245.736000
10.246708	1.104167	0.236586	246.236000
10.271032	1.107487	0.236892	246.736000
10.292408	1.110366	0.237210	247.236000
10.313509	1.111611	0.237874	247.736000
10.335254	1.111597	0.238623	248.237000
10.358376	1.111338	0.239222	248.736000
10.383032	1.111491	0.239699	249.236000
10.404737	1.111182	0.240300	249.736000
10.426312	1.110061	0.240907	250.236000
10.447155	1.107644	0.241519	250.737000
10.467471	1.104111	0.242014	251.236000
10.490556	1.100695	0.242205	251.736000
10.512493	1.097432	0.242766	252.236000
10.534762	1.093706	0.243490	252.736000
10.559094	1.089217	0.244397	253.236000
10.579883	1.083794	0.245062	253.736000
10.600836	1.078080	0.245526	254.236000
10.622699	1.071600	0.245726	254.736000
10.645329	1.064974	0.246185	255.236000
10.667267	1.058903	0.246826	255.736000
10.687679	1.052828	0.247210	256.237000
10.709013	1.045632	0.247793	256.736000
10.730956	1.037635	0.248417	257.236000
10.752659	1.028530	0.249181	257.736000
10.774135	1.019860	0.250029	258.237000
10.798307	1.011878	0.250686	258.736000
10.819962	1.003962	0.251068	259.236000
10.843932	0.995617	0.251376	259.737000
10.864181	0.986060	0.251880	260.236000
10.882428	0.975411	0.252687	260.736000
10.901924	0.965290	0.253445	261.236000
10.926095	0.956175	0.254029	261.736000
10.948015	0.946494	0.254668	262.236000
10.972253	0.935425	0.255270	262.737000
10.996622	0.924386	0.255790	263.236000
11.017624	0.913456	0.256265	263.736000
