Data run started at:  Tuesday, October 17, 2017	3:14:31 PM
magnet(A)	lockin1(V)	lockin2(V)	time (sec)
NaN	NaN	NaN	16.044000
0.068942	0.485526	0.020383	16.101000
0.069003	0.485035	0.020318	16.601000
0.069116	0.484093	0.020243	17.101000
0.069199	0.483863	0.020329	17.601000
0.069144	0.484106	0.020328	18.101000
0.069020	0.485381	0.020349	18.601000
0.069080	0.485295	0.020447	19.102000
0.069942	0.484686	0.020354	19.601000
0.085321	0.484514	0.020335	20.101000
0.110881	0.483936	0.020438	20.601000
0.135166	0.482923	0.020528	21.102000
0.156424	0.481930	0.020712	21.601000
0.180038	0.481362	0.020873	22.101000
0.201693	0.481877	0.021202	22.602000
0.219182	0.483404	0.021618	23.101000
0.236337	0.483692	0.022086	23.601000
0.259259	0.483379	0.022924	24.101000
0.276942	0.483923	0.024053	24.601000
0.294453	0.483827	0.025083	25.101000
0.314798	0.483165	0.026077	25.601000
0.337167	0.482009	0.027070	26.101000
0.359316	0.480331	0.028046	26.601000
0.382071	0.478273	0.029204	27.102000
0.402960	0.477163	0.030352	27.601000
0.426700	0.475974	0.031472	28.101000
0.445520	0.474794	0.032643	28.601000
0.463112	0.473727	0.033742	29.102000
0.484911	0.472405	0.034898	29.601000
0.511787	0.470802	0.036233	30.101000
0.535597	0.469245	0.037732	30.601000
0.554604	0.467742	0.039072	31.102000
0.573200	0.466717	0.040240	31.601000
0.605192	0.465791	0.041400	32.101000
0.625241	0.464651	0.042687	32.601000
0.644290	0.463431	0.043913	33.101000
0.662970	0.462059	0.045272	33.601000
0.687125	0.460665	0.046690	34.101000
0.706929	0.459285	0.048189	34.601000
0.719573	0.458001	0.049761	35.101000
0.747351	0.456501	0.051209	35.601000
0.770555	0.455035	0.052692	36.101000
0.783991	0.453680	0.054191	36.601000
0.810083	0.452689	0.055561	37.101000
0.838819	0.451688	0.056841	37.601000
0.859091	0.450850	0.058108	38.101000
0.870444	0.449953	0.059620	38.601000
0.895508	0.448964	0.061031	39.101000
0.918005	0.447796	0.062301	39.601000
0.938338	0.446745	0.063480	40.102000
0.961239	0.445547	0.064785	40.601000
0.984532	0.444283	0.066148	41.101000
1.015110	0.443155	0.067576	41.601000
1.033550	0.441984	0.069062	42.101000
1.048428	0.440725	0.070628	42.601000
1.070874	0.439519	0.072125	43.101000
1.088998	0.438213	0.073440	43.601000
1.107730	0.436846	0.074906	44.101000
1.129422	0.435251	0.076325	44.601000
1.153222	0.433615	0.077857	45.101000
1.177148	0.431965	0.079324	45.602000
1.195492	0.430675	0.080658	46.101000
1.212717	0.429375	0.081928	46.601000
1.235858	0.428048	0.083262	47.101000
1.255753	0.426974	0.084683	47.601000
1.279611	0.426128	0.086050	48.101000
1.298063	0.425418	0.087505	48.601000
1.316981	0.424386	0.088922	49.101000
1.338851	0.422954	0.090438	49.601000
1.361255	0.421503	0.091841	50.101000
1.382682	0.420310	0.093049	50.601000
1.400107	0.419358	0.094205	51.101000
1.418517	0.418427	0.095463	51.601000
1.440107	0.417454	0.096765	52.101000
1.461495	0.416498	0.098167	52.601000
1.482225	0.415498	0.099783	53.101000
1.501025	0.414547	0.101424	53.601000
1.522503	0.413813	0.102913	54.101000
1.542357	0.412770	0.104378	54.601000
1.562573	0.411460	0.105746	55.101000
1.582496	0.409915	0.107032	55.601000
1.602194	0.408572	0.108393	56.101000
1.622880	0.407714	0.109758	56.601000
1.642583	0.406671	0.111125	57.101000
1.662346	0.405692	0.112337	57.601000
1.682797	0.404834	0.113606	58.101000
1.703116	0.403968	0.114899	58.601000
1.722938	0.402847	0.116241	59.101000
1.743009	0.401809	0.117714	59.601000
1.764199	0.401084	0.119063	60.102000
1.785842	0.400581	0.120439	60.601000
1.805192	0.400017	0.121971	61.101000
1.824071	0.399001	0.123299	61.601000
1.844696	0.397799	0.124593	62.101000
1.864242	0.396798	0.125879	62.601000
1.884396	0.395681	0.127205	63.101000
1.906128	0.394492	0.128511	63.601000
1.925228	0.393829	0.129811	64.101000
1.945741	0.393282	0.131024	64.601000
1.966792	0.392591	0.132277	65.101000
1.988886	0.391597	0.133690	65.601000
2.008628	0.390448	0.135094	66.101000
2.030107	0.389467	0.136577	66.601000
2.050983	0.388381	0.138054	67.101000
2.071474	0.387395	0.139396	67.601000
2.091968	0.386311	0.140811	68.101000
2.112707	0.385399	0.142320	68.601000
2.134508	0.384327	0.143859	69.101000
2.156624	0.382911	0.145182	69.601000
2.178245	0.381811	0.146619	70.101000
2.199333	0.381211	0.147958	70.601000
2.220891	0.380843	0.149163	71.101000
2.241602	0.380523	0.150304	71.601000
2.261535	0.379881	0.151476	72.101000
2.282693	0.379075	0.152741	72.601000
2.303132	0.377953	0.154153	73.101000
2.323592	0.377163	0.155714	73.601000
2.344645	0.376446	0.157223	74.101000
2.365332	0.375567	0.158665	74.601000
2.385613	0.374380	0.160026	75.101000
2.406483	0.373108	0.161320	75.602000
2.426754	0.371884	0.162787	76.101000
2.447065	0.371043	0.164215	76.601000
2.467670	0.370462	0.165700	77.101000
2.487599	0.369757	0.167060	77.602000
2.507111	0.369160	0.168310	78.101000
2.525761	0.368729	0.169786	78.601000
2.545767	0.368167	0.171226	79.101000
2.565774	0.367967	0.172561	79.601000
2.588143	0.367453	0.173865	80.102000
2.609210	0.366733	0.175182	80.601000
2.628810	0.365786	0.176472	81.102000
2.648285	0.364792	0.177681	81.601000
2.670212	0.364056	0.178929	82.102000
2.689994	0.363289	0.180241	82.601000
2.710481	0.361941	0.181593	83.102000
2.731348	0.360889	0.182947	83.601000
2.751326	0.359577	0.184176	84.101000
2.771563	0.358093	0.185349	84.601000
2.792554	0.356844	0.186714	85.101000
2.812218	0.355841	0.188111	85.601000
2.833600	0.355148	0.189433	86.101000
2.855105	0.355012	0.190809	86.601000
2.875398	0.354996	0.192204	87.101000
2.894623	0.355053	0.193451	87.601000
2.915661	0.354644	0.194792	88.101000
2.937876	0.353588	0.196312	88.601000
2.957428	0.352677	0.197736	89.101000
2.980080	0.352250	0.199096	89.601000
3.003811	0.351274	0.200428	90.101000
3.025992	0.350144	0.201852	90.601000
3.048460	0.349143	0.203325	91.102000
3.069560	0.349033	0.204731	91.601000
3.091534	0.348870	0.206188	92.101000
3.111392	0.348121	0.207542	92.601000
3.133772	0.346939	0.208943	93.102000
3.153975	0.345620	0.210079	93.601000
3.175218	0.344803	0.211330	94.101000
3.195123	0.344214	0.212601	94.601000
3.215938	0.343989	0.213961	95.101000
3.235966	0.344257	0.215462	95.601000
3.255535	0.344795	0.216888	96.101000
3.275934	0.344681	0.218180	96.601000
3.295810	0.343973	0.219522	97.101000
3.317017	0.342788	0.220818	97.601000
3.337666	0.341559	0.222217	98.101000
3.358702	0.340264	0.223489	98.601000
3.380116	0.339328	0.224942	99.101000
3.400581	0.338885	0.226326	99.601000
3.421638	0.338422	0.227641	100.102000
3.442245	0.338399	0.229064	100.601000
3.462675	0.338868	0.230250	101.102000
3.482966	0.339503	0.231607	101.601000
3.503707	0.339788	0.233001	102.101000
3.523738	0.339226	0.234402	102.601000
3.543911	0.338272	0.235746	103.101000
3.565156	0.337038	0.237039	103.601000
3.585892	0.335133	0.238361	104.101000
3.607650	0.333084	0.239643	104.601000
3.628473	0.331134	0.241048	105.101000
3.648845	0.329678	0.242550	105.601000
3.668650	0.328599	0.243944	106.101000
3.688966	0.328397	0.245182	106.601000
3.710690	0.329353	0.246354	107.101000
3.731458	0.330971	0.247552	107.601000
3.752162	0.332626	0.248890	108.101000
3.774616	0.333995	0.250276	108.601000
3.795284	0.334711	0.251641	109.101000
3.816989	0.334497	0.253019	109.601000
3.838484	0.333452	0.254489	110.101000
3.859422	0.331670	0.255970	110.601000
3.879457	0.329535	0.257538	111.101000
3.899905	0.326949	0.259098	111.601000
3.919986	0.324400	0.260552	112.101000
3.940709	0.322640	0.261807	112.601000
3.962557	0.321964	0.263232	113.101000
3.983100	0.322274	0.264739	113.601000
4.003815	0.323403	0.266073	114.101000
4.023101	0.325199	0.267280	114.601000
4.043830	0.327227	0.268427	115.101000
4.064960	0.329444	0.269662	115.602000
4.085890	0.330964	0.271084	116.101000
4.107210	0.332183	0.272546	116.602000
4.129396	0.332755	0.274218	117.101000
4.150863	0.331987	0.275639	117.601000
4.171869	0.330338	0.277036	118.101000
4.192298	0.328308	0.278430	118.601000
4.213191	0.326096	0.279793	119.101000
4.233703	0.323403	0.281193	119.601000
4.253788	0.319946	0.282561	120.101000
4.275137	0.317132	0.284065	120.601000
4.296570	0.315092	0.285384	121.101000
4.319072	0.314114	0.286670	121.601000
4.340650	0.314406	0.287876	122.101000
4.362515	0.315843	0.289220	122.601000
4.384175	0.318411	0.290556	123.101000
4.405681	0.321378	0.291810	123.601000
4.426875	0.324449	0.293237	124.101000
4.448914	0.327804	0.294693	124.602000
4.471660	0.330665	0.296171	125.101000
4.493622	0.332575	0.297693	125.601000
4.514908	0.333280	0.299144	126.101000
4.534946	0.332797	0.300735	126.602000
4.555355	0.331139	0.302376	127.101000
4.576390	0.328428	0.303893	127.601000
4.597811	0.325145	0.305263	128.101000
4.620556	0.321576	0.306723	128.601000
4.640279	0.317602	0.308205	129.101000
4.661356	0.313346	0.309705	129.601000
4.681929	0.309206	0.311108	130.101000
4.702811	0.306103	0.312368	130.601000
4.723264	0.304188	0.313493	131.102000
4.743550	0.303599	0.314606	131.601000
4.763904	0.305080	0.315903	132.101000
4.785831	0.307736	0.317043	132.601000
4.807464	0.311543	0.318291	133.101000
4.828528	0.316302	0.319702	133.601000
4.849466	0.321318	0.321230	134.101000
4.871091	0.325741	0.322728	134.601000
4.892377	0.330373	0.323918	135.101000
4.913778	0.335192	0.325064	135.601000
4.934289	0.338690	0.326409	136.101000
4.954808	0.340572	0.327776	136.602000
4.975815	0.341497	0.329190	137.101000
4.997793	0.341673	0.330581	137.602000
5.019052	0.340120	0.331900	138.101000
5.039727	0.337298	0.333379	138.601000
5.060566	0.333470	0.334868	139.101000
5.081359	0.327946	0.336353	139.602000
5.103482	0.321727	0.337876	140.101000
5.123103	0.315422	0.339381	140.601000
5.143890	0.309454	0.340918	141.101000
5.164822	0.303947	0.342430	141.601000
5.185540	0.299400	0.343833	142.101000
5.206216	0.296231	0.345179	142.601000
5.227048	0.293601	0.346418	143.101000
5.247490	0.292989	0.347629	143.601000
5.269185	0.294587	0.348853	144.101000
5.287942	0.297735	0.350095	144.601000
5.309442	0.302049	0.351251	145.101000
5.328930	0.307315	0.352386	145.601000
5.349257	0.313804	0.353634	146.101000
5.370262	0.320629	0.354816	146.601000
5.393942	0.327360	0.355940	147.101000
5.417803	0.334087	0.357035	147.601000
5.437209	0.340821	0.358224	148.101000
5.456860	0.346679	0.359567	148.601000
5.479256	0.351927	0.361127	149.101000
5.498813	0.355995	0.362645	149.601000
5.520200	0.358911	0.364153	150.101000
5.540646	0.360426	0.365604	150.602000
5.560854	0.360610	0.367270	151.102000
5.580449	0.359549	0.368950	151.601000
5.600351	0.357350	0.370559	152.101000
5.619478	0.353829	0.372225	152.601000
5.640447	0.349224	0.373908	153.101000
5.663800	0.343872	0.375535	153.601000
5.686700	0.336949	0.377010	154.101000
5.704172	0.329801	0.378468	154.601000
5.724210	0.322396	0.379984	155.101000
5.746064	0.314550	0.381462	155.601000
5.765575	0.305967	0.382664	156.101000
5.785789	0.297906	0.383866	156.601000
5.804560	0.291435	0.385052	157.101000
5.822291	0.287015	0.386127	157.601000
5.843084	0.284283	0.387249	158.101000
5.864256	0.282853	0.388244	158.601000
5.883801	0.283302	0.389303	159.101000
5.901746	0.284941	0.390433	159.601000
5.923477	0.288675	0.391504	160.101000
5.945308	0.294247	0.392421	160.602000
5.963651	0.300590	0.393391	161.101000
5.986157	0.308456	0.394563	161.601000
6.007237	0.317213	0.395627	162.101000
6.028367	0.326520	0.396719	162.601000
6.044365	0.336421	0.397737	163.101000
6.065156	0.346128	0.398806	163.601000
6.089853	0.355653	0.400076	164.101000
6.106952	0.364911	0.401318	164.601000
6.124530	0.373690	0.402668	165.101000
6.145557	0.381396	0.403955	165.601000
6.166622	0.387854	0.405204	166.102000
6.186796	0.392917	0.406493	166.601000
6.207694	0.396011	0.407957	167.101000
6.226400	0.397566	0.409652	167.601000
6.244507	0.398329	0.411559	168.101000
6.264698	0.398503	0.413337	168.601000
6.283407	0.398787	0.414927	169.101000
6.300247	0.398098	0.416580	169.601000
6.319998	0.395104	0.418335	170.101000
6.341788	0.390858	0.420011	170.601000
6.362769	0.386442	0.421692	171.102000
6.379050	0.380885	0.423365	171.601000
6.397515	0.374780	0.424924	172.101000
6.416582	0.368457	0.426375	172.601000
6.437032	0.361574	0.427613	173.101000
6.462966	0.353567	0.429132	173.601000
6.480231	0.344861	0.430760	174.101000
6.498190	0.335046	0.432173	174.601000
6.516429	0.324389	0.433566	175.102000
6.535300	0.314220	0.434900	175.601000
6.556424	0.304782	0.436039	176.101000
6.576745	0.296078	0.437056	176.601000
6.595099	0.288347	0.438186	177.101000
6.614659	0.281133	0.439313	177.601000
6.635643	0.274672	0.440380	178.101000
6.655262	0.270740	0.441227	178.601000
6.677014	0.269151	0.442090	179.101000
6.697842	0.268997	0.443091	179.601000
6.719339	0.270691	0.443943	180.101000
6.738535	0.274832	0.444808	180.601000
6.760336	0.281097	0.445622	181.101000
6.781027	0.288567	0.446633	181.601000
6.801691	0.297157	0.447581	182.101000
6.822970	0.307885	0.448482	182.601000
6.843437	0.320817	0.449404	183.101000
6.865597	0.335057	0.450379	183.601000
6.885474	0.349084	0.451556	184.101000
6.907352	0.362776	0.452573	184.601000
6.928867	0.377025	0.453640	185.102000
6.949923	0.390197	0.455022	185.601000
6.970761	0.402682	0.456483	186.101000
6.991318	0.414796	0.457886	186.601000
7.012713	0.426468	0.459443	187.101000
7.032951	0.436500	0.460833	187.601000
7.055184	0.445153	0.462285	188.101000
7.076538	0.452499	0.463771	188.601000
7.096585	0.458960	0.465192	189.101000
7.117160	0.464390	0.466447	189.601000
7.137421	0.468363	0.467660	190.101000
7.158319	0.470463	0.469056	190.601000
7.177780	0.471442	0.470614	191.101000
7.196642	0.471833	0.472371	191.601000
7.216206	0.471929	0.474057	192.101000
7.236595	0.471594	0.475776	192.601000
7.257312	0.470529	0.477615	193.101000
7.276913	0.467702	0.479415	193.601000
7.296759	0.463153	0.481103	194.101000
7.317203	0.457463	0.482850	194.601000
7.337793	0.451139	0.484526	195.102000
7.357583	0.445001	0.486204	195.601000
7.377502	0.438540	0.487870	196.101000
7.397799	0.431666	0.489556	196.601000
7.419241	0.423460	0.491179	197.102000
7.440250	0.414371	0.492785	197.601000
7.460699	0.404507	0.494425	198.101000
7.480050	0.394425	0.496222	198.602000
7.500857	0.383759	0.498166	199.101000
7.521405	0.372570	0.499836	199.601000
7.541617	0.362138	0.501439	200.101000
7.562369	0.351750	0.502985	200.601000
7.582445	0.340570	0.504475	201.101000
7.602871	0.329200	0.505996	201.601000
7.625254	0.317397	0.507427	202.101000
7.646483	0.305146	0.508882	202.601000
7.666275	0.294049	0.510222	203.101000
7.686303	0.283535	0.511386	203.601000
7.707721	0.274406	0.512293	204.101000
7.729190	0.266597	0.513000	204.601000
7.748953	0.260607	0.513615	205.101000
7.768881	0.256798	0.514305	205.601000
7.789383	0.255247	0.515057	206.101000
7.810197	0.256354	0.515839	206.601000
7.830184	0.260250	0.516534	207.102000
7.851336	0.266333	0.517194	207.601000
7.871794	0.274330	0.517713	208.101000
7.891760	0.283876	0.518209	208.601000
7.913693	0.296546	0.518845	209.101000
7.933615	0.311068	0.519747	209.601000
7.954132	0.326763	0.520849	210.101000
7.974508	0.343957	0.522018	210.602000
7.995263	0.362215	0.523118	211.101000
8.016139	0.381043	0.524017	211.601000
8.036989	0.399329	0.524886	212.101000
8.056741	0.418355	0.525702	212.601000
8.077045	0.437234	0.526720	213.101000
8.097528	0.455509	0.527866	213.601000
8.118756	0.472898	0.529183	214.101000
8.139127	0.489583	0.530673	214.601000
8.159088	0.505219	0.532123	215.101000
8.179486	0.519700	0.533639	215.601000
8.200397	0.533878	0.534953	216.101000
8.220971	0.546777	0.536207	216.601000
8.240542	0.558505	0.537518	217.101000
8.260736	0.569049	0.538846	217.601000
8.281731	0.578950	0.540130	218.101000
8.303625	0.587773	0.541416	218.601000
8.323804	0.595307	0.542702	219.101000
8.345309	0.601577	0.543958	219.601000
8.365353	0.607102	0.545441	220.101000
8.385556	0.612168	0.547039	220.601000
8.407477	0.615764	0.548683	221.101000
8.428263	0.617841	0.550266	221.601000
8.448422	0.618683	0.551732	222.101000
8.469119	0.618846	0.553267	222.601000
8.489120	0.618163	0.554808	223.101000
8.510965	0.616055	0.556448	223.601000
8.531287	0.613686	0.558071	224.101000
8.551483	0.610592	0.559704	224.601000
8.570926	0.605876	0.561195	225.101000
8.591086	0.600765	0.562738	225.601000
8.612493	0.596038	0.564702	226.101000
8.633084	0.590687	0.566766	226.601000
8.653520	0.584346	0.568739	227.101000
8.674580	0.577852	0.570496	227.601000
8.695869	0.571066	0.572210	228.101000
8.716724	0.563527	0.574010	228.601000
8.737091	0.555410	0.575768	229.101000
8.756738	0.546907	0.577554	229.601000
8.778435	0.538534	0.579319	230.101000
8.800288	0.529234	0.581207	230.601000
8.820613	0.518402	0.583148	231.101000
8.839458	0.507800	0.584932	231.601000
8.859491	0.496595	0.586555	232.101000
8.878820	0.485705	0.588186	232.602000
8.898544	0.474873	0.589827	233.102000
8.918628	0.463765	0.591484	233.601000
8.938565	0.452217	0.593367	234.102000
8.959307	0.440412	0.595216	234.601000
8.980142	0.428481	0.597094	235.101000
9.000385	0.416661	0.598763	235.601000
9.019877	0.404025	0.600325	236.101000
9.039496	0.390653	0.601859	236.601000
9.060324	0.377043	0.603359	237.101000
9.081595	0.363708	0.604749	237.601000
9.101991	0.350404	0.606349	238.101000
9.122354	0.336745	0.607790	238.601000
9.142978	0.322824	0.609110	239.101000
9.163580	0.309514	0.610373	239.601000
9.184386	0.295932	0.611412	240.101000
9.204760	0.282854	0.612263	240.601000
9.226075	0.271070	0.612936	241.101000
9.246726	0.260985	0.613762	241.601000
9.267416	0.252183	0.614440	242.101000
9.290235	0.245718	0.615188	242.602000
9.310482	0.241315	0.615788	243.101000
9.331345	0.239228	0.616359	243.601000
9.352215	0.239774	0.616892	244.102000
9.373327	0.243576	0.617424	244.601000
9.395566	0.249339	0.617894	245.101000
9.416710	0.257161	0.618238	245.601000
9.437337	0.268296	0.618640	246.101000
9.459056	0.282759	0.618945	246.601000
9.480055	0.298786	0.619416	247.101000
9.501727	0.316364	0.620080	247.601000
9.522581	0.335504	0.620880	248.101000
9.544452	0.356820	0.621791	248.602000
9.566680	0.380499	0.622685	249.101000
9.589005	0.404882	0.623630	249.601000
9.609127	0.429446	0.624725	250.101000
9.630366	0.453467	0.625896	250.601000
9.650822	0.477363	0.627153	251.101000
9.674328	0.501939	0.628197	251.601000
9.695887	0.526820	0.629199	252.101000
9.716422	0.550009	0.630229	252.601000
9.737818	0.572067	0.631435	253.102000
9.759531	0.593544	0.632605	253.601000
9.782001	0.615477	0.633812	254.101000
9.803391	0.637053	0.634975	254.601000
9.826172	0.656624	0.636055	255.101000
9.848435	0.674556	0.637139	255.601000
9.870994	0.692442	0.638351	256.102000
9.892519	0.710102	0.639870	256.601000
9.912386	0.727640	0.641496	257.102000
9.933478	0.744243	0.642992	257.601000
9.954664	0.758896	0.644473	258.102000
9.976672	0.772500	0.645920	258.602000
9.996767	0.785597	0.647309	259.101000
10.016998	0.798029	0.648745	259.601000
10.037299	0.809321	0.650117	260.101000
10.058615	0.820014	0.651361	260.601000
10.080475	0.830510	0.652616	261.101000
10.100449	0.839145	0.654106	261.601000
10.121786	0.846413	0.655742	262.101000
10.142955	0.853613	0.657280	262.601000
10.162928	0.859891	0.658792	263.101000
10.183561	0.864390	0.660447	263.602000
10.204477	0.868607	0.662053	264.102000
10.224994	0.872812	0.663671	264.601000
10.246277	0.876287	0.665043	265.101000
10.268093	0.879149	0.666344	265.601000
10.289668	0.880179	0.667831	266.101000
10.310848	0.880828	0.669472	266.601000
10.331252	0.881053	0.671150	267.101000
10.352079	0.879872	0.672620	267.601000
10.372325	0.878274	0.674294	268.101000
10.392154	0.876665	0.675892	268.601000
10.416608	0.874425	0.677429	269.101000
10.436288	0.871430	0.678966	269.601000
10.457690	0.866531	0.680457	270.101000
10.480495	0.861702	0.681875	270.601000
10.499223	0.856813	0.683464	271.101000
10.520522	0.851895	0.685083	271.601000
10.544178	0.846611	0.686793	272.101000
