Data run started at:  Thursday, October 19, 2017	3:30:23 PM
magnet(A)	lockin1(V)	lockin2(V)	time (sec)
NaN	NaN	NaN	12.943000
0.071213	0.504951	0.023462	13.316000
0.071476	0.504661	0.023391	13.817000
0.071600	0.504657	0.023346	14.316000
0.071680	0.504463	0.023187	14.817000
0.071496	0.504070	0.022937	15.316000
0.071338	0.503839	0.022838	15.816000
0.071571	0.503879	0.022704	16.316000
0.074306	0.504124	0.022653	16.816000
0.089805	0.503966	0.022641	17.316000
0.115769	0.503496	0.022662	17.817000
0.138846	0.502971	0.022720	18.316000
0.159480	0.502889	0.022991	18.816000
0.180960	0.502972	0.023432	19.316000
0.204724	0.502799	0.023913	19.816000
0.222678	0.502079	0.024381	20.316000
0.236161	0.501470	0.025113	20.816000
0.255152	0.501371	0.026036	21.317000
0.276828	0.501560	0.026948	21.816000
0.294377	0.501071	0.028062	22.316000
0.311038	0.500518	0.029198	22.816000
0.330198	0.499829	0.030224	23.317000
0.353644	0.498861	0.031283	23.817000
0.375489	0.497502	0.032389	24.316000
0.394773	0.495816	0.033413	24.817000
0.413506	0.494264	0.034360	25.316000
0.436066	0.493083	0.035287	25.816000
0.453068	0.492114	0.036352	26.316000
0.469678	0.491896	0.037663	26.816000
0.489311	0.491798	0.039057	27.316000
0.513486	0.491215	0.040277	27.817000
0.534284	0.490214	0.041451	28.316000
0.556311	0.488560	0.042636	28.817000
0.571706	0.486937	0.043934	29.316000
0.598285	0.485609	0.045262	29.816000
0.622900	0.484352	0.046602	30.316000
0.642720	0.483088	0.047712	30.816000
0.661319	0.481823	0.049012	31.317000
0.681451	0.480312	0.050398	31.816000
0.701139	0.478888	0.051860	32.316000
0.716136	0.477340	0.053284	32.816000
0.735072	0.475772	0.054668	33.316000
0.764652	0.474236	0.056290	33.816000
0.782383	0.473021	0.057806	34.316000
0.794919	0.472171	0.059321	34.817000
0.820880	0.471001	0.060562	35.316000
0.845612	0.470026	0.061635	35.816000
0.865603	0.468951	0.062756	36.316000
0.875574	0.467637	0.063747	36.816000
0.897877	0.466711	0.065019	37.316000
0.920134	0.465547	0.066316	37.817000
0.938339	0.464462	0.067694	38.316000
0.957996	0.463269	0.069086	38.816000
0.982257	0.461895	0.070442	39.316000
1.009851	0.460640	0.071853	39.816000
1.034695	0.459662	0.073363	40.317000
1.048507	0.458342	0.074704	40.816000
1.064330	0.456803	0.076119	41.317000
1.086343	0.455771	0.077641	41.816000
1.100693	0.454857	0.079207	42.317000
1.118901	0.453910	0.080812	42.816000
1.138662	0.452910	0.082153	43.316000
1.160640	0.451940	0.083338	43.816000
1.182888	0.451038	0.084594	44.316000
1.200412	0.449998	0.085738	44.816000
1.217392	0.448969	0.087103	45.316000
1.239358	0.447785	0.088414	45.816000
1.259023	0.446489	0.089588	46.316000
1.279406	0.444925	0.090722	46.816000
1.298851	0.443468	0.092074	47.316000
1.316108	0.442347	0.093393	47.817000
1.336725	0.441420	0.094697	48.316000
1.358212	0.440610	0.096017	48.817000
1.381708	0.439786	0.097494	49.316000
1.398750	0.438553	0.098975	49.816000
1.414545	0.437033	0.100402	50.317000
1.434972	0.435613	0.101738	50.816000
1.454094	0.434445	0.103082	51.316000
1.474118	0.433164	0.104443	51.816000
1.492557	0.431764	0.105782	52.316000
1.511198	0.430280	0.107152	52.816000
1.531075	0.428654	0.108541	53.316000
1.550042	0.427390	0.109918	53.816000
1.569615	0.426492	0.111123	54.316000
1.588885	0.425719	0.112216	54.816000
1.607953	0.425179	0.113471	55.316000
1.628377	0.424438	0.114758	55.816000
1.648478	0.423447	0.116081	56.316000
1.668339	0.422210	0.117596	56.816000
1.689292	0.421030	0.118978	57.316000
1.708640	0.419987	0.120296	57.816000
1.727778	0.418911	0.121531	58.316000
1.746955	0.417792	0.122786	58.816000
1.768093	0.416568	0.124098	59.316000
1.789522	0.415389	0.125485	59.816000
1.807797	0.414412	0.126915	60.317000
1.826206	0.413379	0.128331	60.816000
1.845756	0.412335	0.129686	61.316000
1.865489	0.411397	0.131070	61.816000
1.885337	0.410479	0.132317	62.316000
1.906777	0.409222	0.133513	62.816000
1.925480	0.407733	0.134801	63.317000
1.945398	0.406522	0.136313	63.816000
1.966032	0.405661	0.137703	64.317000
1.985084	0.404689	0.139046	64.816000
2.005579	0.403309	0.140289	65.316000
2.024888	0.401967	0.141540	65.817000
2.045875	0.400625	0.143013	66.316000
2.065788	0.399619	0.144411	66.817000
2.085270	0.398648	0.145867	67.316000
2.105078	0.397568	0.147264	67.817000
2.125709	0.396557	0.148542	68.316000
2.147294	0.395734	0.149929	68.816000
2.166727	0.394637	0.151434	69.316000
2.187388	0.393538	0.153055	69.816000
2.207457	0.392739	0.154513	70.316000
2.228229	0.391766	0.155777	70.816000
2.248075	0.390789	0.157043	71.316000
2.268655	0.389797	0.158462	71.816000
2.290363	0.388704	0.159815	72.316000
2.311382	0.387519	0.161138	72.816000
2.330874	0.386492	0.162575	73.317000
2.351431	0.385584	0.163774	73.816000
2.370522	0.384581	0.164987	74.317000
2.389603	0.383448	0.166315	74.816000
2.411145	0.382210	0.167531	75.316000
2.432434	0.381434	0.168729	75.817000
2.453056	0.380753	0.170000	76.316000
2.473171	0.379721	0.171270	76.816000
2.492491	0.378603	0.172755	77.316000
2.511804	0.377441	0.174166	77.816000
2.531393	0.376261	0.175530	78.316000
2.552348	0.374813	0.176859	78.816000
2.572601	0.373583	0.178276	79.316000
2.593538	0.372736	0.179707	79.817000
2.615506	0.371854	0.181012	80.316000
2.635579	0.370852	0.182552	80.816000
2.654368	0.369739	0.183992	81.316000
2.675419	0.368537	0.185439	81.816000
2.696061	0.367257	0.186953	82.316000
2.716407	0.366362	0.188364	82.816000
2.736004	0.365784	0.189709	83.317000
2.755688	0.365687	0.191087	83.816000
2.775414	0.365373	0.192436	84.316000
2.795190	0.364773	0.193700	84.816000
2.815431	0.364061	0.194988	85.316000
2.835010	0.362873	0.196244	85.817000
2.856298	0.361400	0.197590	86.316000
2.877052	0.359565	0.198976	86.816000
2.896112	0.357961	0.200239	87.316000
2.916113	0.356874	0.201576	87.816000
2.937072	0.356664	0.203061	88.316000
2.955228	0.356803	0.204653	88.816000
2.975932	0.356977	0.206220	89.316000
2.996814	0.356903	0.207653	89.817000
3.017748	0.355889	0.209082	90.316000
3.039624	0.353751	0.210363	90.816000
3.061123	0.351351	0.211720	91.317000
3.084573	0.349222	0.213090	91.816000
3.104726	0.347913	0.214527	92.317000
3.125095	0.347420	0.216005	92.816000
3.145972	0.347563	0.217387	93.316000
3.166278	0.348451	0.218749	93.816000
3.187002	0.349514	0.220115	94.316000
3.207620	0.349771	0.221615	94.816000
3.228257	0.348490	0.223102	95.316000
3.248375	0.346337	0.224504	95.816000
3.267512	0.343718	0.225931	96.316000
3.288095	0.341119	0.227399	96.816000
3.308390	0.339077	0.228760	97.316000
3.331451	0.338079	0.229878	97.816000
3.351090	0.338382	0.230810	98.316000
3.371039	0.339738	0.231990	98.817000
3.392205	0.341553	0.233281	99.316000
3.413563	0.343160	0.234732	99.817000
3.434651	0.343829	0.236180	100.316000
3.455078	0.342957	0.237680	100.816000
3.475672	0.340614	0.239249	101.317000
3.499119	0.337498	0.240752	101.816000
3.519657	0.333953	0.242180	102.316000
3.540660	0.330396	0.243556	102.816000
3.561128	0.327744	0.244846	103.317000
3.581811	0.326861	0.246108	103.816000
3.602818	0.327790	0.247236	104.316000
3.624798	0.330236	0.248463	104.816000
3.646241	0.333468	0.249838	105.316000
3.666619	0.336526	0.251374	105.817000
3.688138	0.338151	0.252993	106.317000
3.709128	0.338259	0.254735	106.816000
3.730627	0.336690	0.256476	107.316000
3.750458	0.333610	0.258091	107.816000
3.772126	0.329701	0.259657	108.316000
3.793527	0.325408	0.261222	108.817000
3.815943	0.321130	0.262507	109.316000
3.839744	0.317682	0.263694	109.817000
3.861098	0.316080	0.264854	110.316000
3.880685	0.316523	0.266045	110.816000
3.901192	0.318945	0.267403	111.317000
3.921524	0.322757	0.268837	111.816000
3.941251	0.327112	0.270054	112.316000
3.961533	0.331218	0.271293	112.816000
3.982023	0.334870	0.272692	113.316000
4.002495	0.337155	0.274245	113.816000
4.022220	0.337650	0.275863	114.316000
4.041108	0.336198	0.277263	114.816000
4.062435	0.332536	0.278702	115.317000
4.083799	0.327403	0.280314	115.816000
4.104807	0.321342	0.281967	116.316000
4.126071	0.315382	0.283506	116.816000
4.146363	0.310117	0.284809	117.316000
4.166664	0.306083	0.286166	117.816000
4.187363	0.303771	0.287471	118.316000
4.207449	0.303254	0.288763	118.817000
4.227756	0.305084	0.290144	119.316000
4.247986	0.309177	0.291308	119.817000
4.269128	0.314824	0.292456	120.316000
4.290379	0.321433	0.293550	120.817000
4.311383	0.328377	0.294762	121.316000
4.332239	0.334628	0.296160	121.816000
4.352937	0.339116	0.297746	122.316000
4.375010	0.342134	0.299365	122.816000
4.396399	0.343107	0.300790	123.317000
4.417488	0.341756	0.302404	123.816000
4.439939	0.337679	0.304150	124.316000
4.461212	0.331626	0.305874	124.816000
4.483233	0.324198	0.307661	125.317000
4.505486	0.316051	0.309324	125.816000
4.526385	0.307621	0.310901	126.316000
4.546540	0.300121	0.312346	126.816000
4.567041	0.294473	0.313748	127.316000
4.589609	0.290701	0.315055	127.816000
4.611007	0.289636	0.316262	128.316000
4.631628	0.291594	0.317344	128.817000
4.650539	0.296457	0.318327	129.316000
4.671820	0.303305	0.319181	129.816000
4.692588	0.311625	0.320259	130.316000
4.713362	0.320828	0.321421	130.816000
4.733148	0.330498	0.322730	131.316000
4.753999	0.339802	0.323988	131.817000
4.774786	0.347739	0.325334	132.316000
4.797700	0.353850	0.326597	132.816000
4.818058	0.357669	0.328012	133.316000
4.838374	0.358843	0.329662	133.816000
4.859205	0.357640	0.331483	134.317000
4.879905	0.353820	0.333474	134.816000
4.900742	0.347534	0.335400	135.316000
4.921368	0.339493	0.337208	135.816000
4.940714	0.330227	0.338971	136.317000
4.960352	0.320162	0.340632	136.817000
4.980843	0.309615	0.342314	137.316000
5.001499	0.299355	0.343871	137.817000
5.022942	0.289906	0.345247	138.316000
5.044620	0.282025	0.346532	138.817000
5.064755	0.276384	0.347840	139.316000
5.086015	0.273323	0.348977	139.816000
5.108145	0.273029	0.349984	140.316000
5.127173	0.275793	0.350810	140.816000
5.146506	0.281890	0.351781	141.316000
5.167807	0.291083	0.352636	141.816000
5.186523	0.302787	0.353551	142.317000
5.206792	0.316080	0.354612	142.816000
5.227268	0.330204	0.355705	143.316000
5.248648	0.344088	0.356697	143.816000
5.271359	0.356548	0.357814	144.317000
5.289768	0.367525	0.358945	144.816000
5.311606	0.376918	0.360119	145.316000
5.332443	0.384358	0.361454	145.816000
5.352710	0.389287	0.362913	146.316000
5.374219	0.391685	0.364554	146.816000
5.397543	0.391538	0.366388	147.316000
5.423448	0.388979	0.368161	147.817000
5.444342	0.384287	0.369966	148.316000
5.465433	0.377502	0.372003	148.816000
5.487849	0.368462	0.373805	149.316000
5.507341	0.357493	0.375661	149.816000
5.528844	0.345287	0.377616	150.316000
5.549250	0.332146	0.379419	150.817000
5.569947	0.318936	0.381326	151.316000
5.588837	0.305841	0.383246	151.816000
5.608808	0.293015	0.384999	152.316000
5.628264	0.281019	0.386474	152.816000
5.649537	0.270642	0.387675	153.317000
5.673395	0.262369	0.388721	153.816000
5.695085	0.256830	0.389753	154.317000
5.713451	0.254614	0.390758	154.816000
5.733600	0.256024	0.391593	155.316000
5.756192	0.260897	0.392395	155.816000
5.776359	0.269476	0.393154	156.317000
5.797511	0.281219	0.393970	156.816000
5.817065	0.295793	0.394939	157.316000
5.837510	0.312534	0.395898	157.816000
5.859106	0.330730	0.396801	158.316000
5.881478	0.349848	0.397848	158.816000
5.899488	0.368798	0.399082	159.316000
5.920178	0.386837	0.400323	159.816000
5.941769	0.403585	0.401549	160.316000
5.963171	0.418472	0.402757	160.817000
5.981806	0.431035	0.404066	161.316000
6.004172	0.441386	0.405519	161.816000
6.025661	0.448896	0.407034	162.316000
6.044014	0.453589	0.408637	162.816000
6.063706	0.455850	0.410400	163.317000
6.086255	0.455886	0.412038	163.816000
6.108778	0.453746	0.413709	164.316000
6.124615	0.449435	0.415345	164.816000
6.144916	0.443063	0.417072	165.316000
6.166116	0.435018	0.418849	165.816000
6.189102	0.425493	0.420774	166.316000
6.206638	0.414291	0.422624	166.816000
6.226346	0.401697	0.424488	167.316000
6.246278	0.388046	0.426445	167.816000
6.265665	0.374064	0.428361	168.316000
6.284332	0.359461	0.430396	168.816000
6.302366	0.344454	0.432352	169.316000
6.321649	0.329626	0.434237	169.817000
6.341070	0.314865	0.435914	170.316000
6.365161	0.300355	0.437561	170.816000
6.381827	0.286165	0.439078	171.316000
6.402985	0.272846	0.440435	171.816000
6.421540	0.260989	0.441501	172.316000
6.443422	0.250609	0.442513	172.816000
6.469599	0.242335	0.443522	173.317000
6.486145	0.236738	0.444332	173.816000
6.505492	0.233892	0.445083	174.317000
6.523441	0.234253	0.445735	174.816000
6.542233	0.238499	0.446270	175.316000
6.564029	0.246297	0.446459	175.816000
6.583038	0.258176	0.446824	176.316000
6.602060	0.273274	0.447417	176.816000
6.621239	0.290900	0.448063	177.317000
6.641777	0.310511	0.448736	177.817000
6.661519	0.331911	0.449393	178.316000
6.682240	0.354383	0.450322	178.816000
6.703462	0.377518	0.451401	179.316000
6.723781	0.400881	0.452581	179.817000
6.744492	0.424043	0.453577	180.316000
6.765287	0.446489	0.454542	180.817000
6.786421	0.467643	0.455578	181.316000
6.806439	0.487335	0.456648	181.816000
6.827485	0.505728	0.457797	182.316000
6.847941	0.522092	0.459168	182.817000
6.869110	0.535976	0.460521	183.316000
6.888297	0.547612	0.461910	183.816000
6.908452	0.557048	0.463413	184.317000
6.929242	0.563716	0.465092	184.816000
6.949628	0.567858	0.466766	185.316000
6.969604	0.569650	0.468509	185.816000
6.990341	0.569400	0.470364	186.317000
7.011831	0.567237	0.472337	186.816000
7.032844	0.562871	0.474228	187.316000
7.054274	0.556898	0.476069	187.816000
7.074965	0.549392	0.477735	188.316000
7.094024	0.540457	0.479339	188.817000
7.113935	0.530747	0.481002	189.316000
7.134991	0.519408	0.482926	189.817000
7.155592	0.506946	0.485051	190.316000
7.176044	0.493718	0.487159	190.816000
7.196411	0.479627	0.489396	191.316000
7.216220	0.464676	0.491475	191.816000
7.236857	0.448773	0.493478	192.316000
7.257937	0.432318	0.495462	192.816000
7.278287	0.415789	0.497415	193.316000
7.298279	0.398695	0.499406	193.816000
7.320058	0.381322	0.501226	194.317000
7.340948	0.363786	0.503132	194.816000
7.362030	0.346427	0.505172	195.316000
7.383426	0.329161	0.507158	195.816000
7.404259	0.312049	0.509090	196.317000
7.426476	0.295425	0.510687	196.816000
7.448048	0.279489	0.512138	197.316000
7.469295	0.264163	0.513274	197.816000
7.490392	0.249709	0.514524	198.316000
7.512398	0.236836	0.515477	198.817000
7.533665	0.226610	0.516242	199.316000
7.554843	0.219596	0.516922	199.816000
7.575644	0.215772	0.517490	200.316000
7.598740	0.215587	0.517894	200.816000
7.620715	0.219653	0.518312	201.316000
7.640928	0.227763	0.518690	201.817000
7.659655	0.239801	0.519004	202.316000
7.679680	0.255634	0.519591	202.816000
7.699823	0.274418	0.520136	203.316000
7.721499	0.296167	0.520794	203.816000
7.742374	0.320467	0.521387	204.316000
7.761798	0.346581	0.522037	204.816000
7.782802	0.374446	0.522694	205.317000
7.804302	0.403418	0.523419	205.816000
7.826044	0.432726	0.524222	206.317000
7.847309	0.462543	0.524977	206.816000
7.867624	0.492153	0.525906	207.316000
7.888427	0.521008	0.526812	207.816000
7.908048	0.548960	0.527932	208.317000
7.929623	0.575764	0.529233	208.817000
7.949187	0.601014	0.530603	209.316000
7.969846	0.624581	0.531992	209.816000
7.990485	0.646364	0.533238	210.316000
8.011411	0.666240	0.534535	210.816000
8.031759	0.684169	0.535987	211.316000
8.052772	0.700365	0.537393	211.816000
8.073564	0.714681	0.538810	212.316000
8.092585	0.727669	0.540336	212.816000
8.112131	0.738641	0.541807	213.316000
8.132480	0.747881	0.543144	213.816000
8.152762	0.754636	0.544493	214.316000
8.173355	0.759133	0.545927	214.816000
8.194762	0.762366	0.547500	215.317000
8.215993	0.763465	0.549107	215.816000
8.235960	0.763246	0.550785	216.317000
8.255039	0.761533	0.552484	216.816000
8.275129	0.758397	0.554207	217.316000
8.298573	0.753508	0.555815	217.816000
8.319412	0.746824	0.557572	218.316000
8.339708	0.739151	0.559335	218.817000
8.359551	0.730506	0.561134	219.316000
8.380655	0.720667	0.562930	219.816000
8.402121	0.709622	0.564666	220.316000
8.423300	0.697185	0.566605	220.816000
8.442864	0.684093	0.568614	221.316000
8.462914	0.670430	0.570671	221.817000
8.484288	0.656118	0.572658	222.316000
8.504950	0.641285	0.574617	222.816000
8.525725	0.625559	0.576740	223.316000
8.546411	0.609299	0.578912	223.816000
8.566875	0.592602	0.580986	224.317000
8.586546	0.575568	0.583054	224.816000
8.606667	0.558029	0.585257	225.317000
8.627035	0.539981	0.587389	225.816000
8.647329	0.521199	0.589451	226.317000
8.668241	0.502524	0.591545	226.816000
8.689089	0.483877	0.593568	227.316000
8.710086	0.465044	0.595610	227.816000
8.729283	0.446194	0.597566	228.316000
8.749634	0.427215	0.599513	228.816000
8.768416	0.407981	0.601483	229.316000
8.790451	0.388860	0.603559	229.817000
8.811357	0.369844	0.605894	230.316000
8.832275	0.351004	0.608001	230.816000
8.851417	0.332507	0.609804	231.316000
8.871326	0.314314	0.611473	231.817000
8.890848	0.296288	0.612949	232.316000
8.910648	0.278824	0.614375	232.816000
8.930639	0.261822	0.615596	233.316000
8.950903	0.245653	0.616614	233.817000
8.972253	0.230882	0.617423	234.317000
8.992509	0.218135	0.618096	234.816000
9.012695	0.207611	0.618577	235.316000
9.031832	0.199546	0.618816	235.816000
9.052444	0.194501	0.619052	236.316000
9.072705	0.192851	0.619435	236.816000
9.094461	0.194471	0.619878	237.316000
9.115057	0.199508	0.620124	237.816000
9.135109	0.207800	0.620193	238.316000
9.155487	0.219001	0.620200	238.816000
9.177154	0.233030	0.620364	239.316000
9.198117	0.249817	0.620558	239.816000
9.218127	0.269425	0.620696	240.316000
9.238642	0.292118	0.620893	240.817000
9.258828	0.317352	0.621117	241.316000
9.279407	0.344948	0.621548	241.817000
9.300154	0.374245	0.622092	242.316000
9.320267	0.405220	0.622784	242.816000
9.341779	0.437555	0.623472	243.316000
9.362395	0.470483	0.624147	243.817000
9.384589	0.503589	0.624849	244.316000
9.404993	0.536703	0.625504	244.816000
9.425989	0.570059	0.626064	245.316000
9.445887	0.603179	0.626793	245.816000
9.467595	0.635605	0.627743	246.316000
9.486980	0.667302	0.628950	246.816000
9.507338	0.698390	0.630309	247.316000
9.527355	0.728281	0.631620	247.816000
9.549456	0.756645	0.632782	248.316000
9.571808	0.783950	0.633912	248.816000
9.593597	0.810188	0.635223	249.316000
9.613202	0.835199	0.636471	249.816000
9.633926	0.858309	0.637882	250.316000
9.654539	0.880316	0.639311	250.817000
9.675964	0.901116	0.640603	251.316000
9.697349	0.920774	0.641939	251.816000
9.718083	0.939495	0.643256	252.316000
9.740708	0.956774	0.644658	252.816000
9.761622	0.972580	0.646039	253.316000
9.783040	0.987230	0.647588	253.816000
9.803433	1.001065	0.649102	254.316000
9.823383	1.013919	0.650468	254.816000
9.844505	1.025313	0.651959	255.317000
9.865975	1.035593	0.653500	255.816000
9.888305	1.044825	0.655182	256.316000
9.907991	1.052856	0.656781	256.816000
9.928485	1.059990	0.658306	257.317000
9.947459	1.066257	0.659794	257.816000
9.968954	1.071147	0.661336	258.316000
9.988370	1.074923	0.662989	258.816000
10.008380	1.077560	0.664785	259.316000
10.028320	1.079133	0.666269	259.817000
10.048895	1.079612	0.667995	260.317000
10.070493	1.079457	0.669733	260.817000
10.091793	1.078214	0.671268	261.316000
10.111373	1.075900	0.672636	261.816000
10.131252	1.072688	0.674180	262.316000
10.151002	1.068441	0.675722	262.816000
10.169793	1.063242	0.677302	263.316000
10.189369	1.057517	0.679173	263.816000
10.208790	1.050816	0.681069	264.316000
10.228578	1.043218	0.682938	264.816000
10.248900	1.034517	0.684843	265.316000
10.269144	1.024921	0.686713	265.816000
10.289966	1.015142	0.688480	266.316000
10.310802	1.004809	0.690054	266.816000
10.330304	0.993532	0.691863	267.317000
10.349632	0.981713	0.693836	267.816000
10.369542	0.968857	0.695792	268.317000
10.387304	0.954920	0.697738	268.816000
10.408236	0.940657	0.699510	269.316000
