Data run started at:  Tuesday, October 17, 2017	2:34:24 PM
magnet(A)	lockin1(V)	lockin2(V)	time (sec)
NaN	NaN	NaN	7.319000
0.032224	0.488559	-0.004408	7.480000
0.032239	0.488661	-0.004795	7.980000
0.032499	0.488353	-0.005147	8.479000
0.032932	0.487701	-0.005240	8.979000
0.042432	0.487395	-0.005236	9.479000
0.061197	0.486996	-0.005240	9.980000
0.087999	0.486561	-0.005248	10.479000
0.109459	0.486397	-0.005050	10.980000
0.129462	0.486500	-0.004632	11.479000
0.150920	0.486679	-0.004067	11.979000
0.169658	0.486462	-0.003414	12.479000
0.184224	0.486111	-0.002723	12.979000
0.202869	0.485791	-0.001772	13.479000
0.221051	0.485313	-0.000455	13.979000
0.238278	0.484855	0.001055	14.479000
0.254932	0.484651	0.002305	14.979000
0.269057	0.484495	0.003096	15.480000
0.287906	0.484085	0.003817	15.979000
0.309019	0.483511	0.004773	16.480000
0.329602	0.482643	0.006090	16.979000
0.349212	0.481673	0.007202	17.480000
0.366695	0.480804	0.008087	17.979000
0.387470	0.479896	0.009229	18.479000
0.404669	0.478850	0.010488	18.979000
0.422879	0.477672	0.011370	19.479000
0.440674	0.476315	0.012446	19.980000
0.462765	0.475308	0.013803	20.479000
0.488278	0.474443	0.014970	20.980000
0.514933	0.473206	0.016002	21.479000
0.524683	0.471411	0.017045	21.980000
0.545122	0.469871	0.018024	22.479000
0.573895	0.468720	0.019315	22.980000
0.595344	0.467615	0.020608	23.479000
0.616428	0.466368	0.021970	23.979000
0.637964	0.465214	0.023416	24.479000
0.660218	0.464321	0.024793	24.979000
0.677283	0.463383	0.026075	25.480000
0.691721	0.462343	0.027285	25.979000
0.719381	0.461282	0.028547	26.480000
0.739790	0.460077	0.029921	26.979000
0.751882	0.458970	0.031205	27.479000
0.770370	0.457732	0.032700	27.979000
0.796189	0.456481	0.034105	28.479000
0.816997	0.455526	0.035573	28.980000
0.826834	0.454506	0.037143	29.479000
0.840248	0.453492	0.038706	29.980000
0.862411	0.452612	0.040098	30.479000
0.882101	0.451614	0.041286	30.979000
0.899700	0.450485	0.042516	31.479000
0.918457	0.449365	0.043679	31.979000
0.940926	0.448160	0.044887	32.479000
0.963692	0.447109	0.045971	32.979000
0.990497	0.446062	0.047081	33.479000
1.001910	0.444908	0.048230	33.980000
1.017825	0.443732	0.049389	34.479000
1.037714	0.442644	0.050633	34.979000
1.054049	0.441708	0.051876	35.480000
1.069949	0.440873	0.053085	35.979000
1.090237	0.439888	0.054418	36.479000
1.111384	0.438680	0.055692	36.979000
1.135675	0.437375	0.056846	37.479000
1.155650	0.436103	0.058000	37.979000
1.170800	0.434940	0.059317	38.479000
1.191351	0.433725	0.060747	38.979000
1.211145	0.432546	0.062170	39.479000
1.228006	0.431378	0.063485	39.979000
1.248004	0.430048	0.064705	40.479000
1.265037	0.428658	0.066009	40.979000
1.284656	0.427657	0.067459	41.479000
1.304409	0.426752	0.068795	41.980000
1.322128	0.425954	0.069998	42.479000
1.343934	0.425276	0.071303	42.979000
1.359372	0.424544	0.072645	43.479000
1.377573	0.423842	0.073987	43.979000
1.396472	0.423073	0.075278	44.480000
1.415814	0.422322	0.076566	44.979000
1.435969	0.421402	0.077963	45.480000
1.452686	0.420232	0.079332	45.979000
1.469383	0.419015	0.080662	46.479000
1.488136	0.417817	0.081993	46.979000
1.508592	0.416744	0.083295	47.479000
1.526264	0.415750	0.084666	47.979000
1.545250	0.414873	0.086025	48.480000
1.564550	0.413768	0.087250	48.979000
1.583811	0.412611	0.088325	49.479000
1.602910	0.411798	0.089442	49.980000
1.620835	0.411153	0.090743	50.479000
1.640748	0.410514	0.092076	50.979000
1.661253	0.409616	0.093354	51.479000
1.679517	0.408540	0.094560	51.980000
1.697801	0.407495	0.095860	52.479000
1.717500	0.406688	0.097302	52.979000
1.737652	0.406035	0.098667	53.479000
1.760429	0.405383	0.099937	53.979000
1.780079	0.404794	0.100995	54.480000
1.797467	0.403860	0.102061	54.979000
1.816742	0.402753	0.103302	55.480000
1.835848	0.401719	0.104588	55.979000
1.855935	0.400792	0.105758	56.479000
1.877170	0.400006	0.106994	56.979000
1.895866	0.398941	0.108384	57.479000
1.914718	0.398040	0.109747	57.979000
1.935055	0.397479	0.111153	58.480000
1.954899	0.396655	0.112338	58.979000
1.975862	0.395666	0.113514	59.479000
1.995023	0.394684	0.114854	59.979000
2.014954	0.393844	0.116393	60.479000
2.032906	0.393068	0.117896	60.980000
2.051142	0.392218	0.119289	61.479000
2.069974	0.391301	0.120614	61.980000
2.090344	0.390799	0.121814	62.479000
2.109800	0.390242	0.122969	62.979000
2.127907	0.389274	0.124312	63.479000
2.147950	0.388239	0.125567	63.979000
2.167971	0.387309	0.126864	64.480000
2.187682	0.386514	0.128177	64.979000
2.205983	0.385503	0.129497	65.480000
2.225022	0.384799	0.130794	65.979000
2.246523	0.384493	0.131942	66.480000
2.266662	0.384115	0.133302	66.979000
2.285396	0.383753	0.134743	67.480000
2.306014	0.383054	0.136019	67.979000
2.324294	0.382240	0.137244	68.480000
2.344436	0.381372	0.138486	68.979000
2.363993	0.380512	0.139847	69.479000
2.384316	0.379891	0.141200	69.979000
2.404113	0.379489	0.142569	70.479000
2.423552	0.379120	0.143831	70.980000
2.443855	0.378638	0.144963	71.479000
2.463576	0.378237	0.146353	71.979000
2.484033	0.377461	0.147870	72.479000
2.501616	0.376482	0.149412	72.979000
2.520596	0.375642	0.150690	73.479000
2.541618	0.375143	0.151941	73.979000
2.561651	0.374458	0.153161	74.479000
2.581610	0.373492	0.154420	74.979000
2.600643	0.372855	0.155659	75.479000
2.619728	0.372297	0.156909	75.979000
2.641885	0.371554	0.158267	76.480000
2.662839	0.370673	0.159569	76.979000
2.683975	0.369893	0.160966	77.479000
2.704044	0.369293	0.162307	77.979000
2.723919	0.368735	0.163583	78.480000
2.744885	0.368233	0.164796	78.979000
2.766054	0.367644	0.166277	79.479000
2.786538	0.366796	0.167660	79.980000
2.806895	0.366121	0.169159	80.479000
2.829153	0.365789	0.170599	80.979000
2.851143	0.365504	0.171864	81.479000
2.871051	0.365187	0.173055	81.980000
2.891868	0.364700	0.174393	82.479000
2.912805	0.363852	0.175879	82.979000
2.931761	0.362835	0.177429	83.479000
2.954233	0.362083	0.178872	83.979000
2.976644	0.361405	0.180375	84.479000
2.999134	0.360908	0.181862	84.979000
3.021429	0.360394	0.183326	85.479000
3.042499	0.359958	0.184681	85.979000
3.064358	0.359494	0.186041	86.479000
3.083783	0.358884	0.187445	86.979000
3.103205	0.358406	0.188847	87.479000
3.123838	0.358021	0.190251	87.979000
3.144730	0.357798	0.191593	88.480000
3.167666	0.357325	0.192991	88.979000
3.187688	0.356730	0.194467	89.479000
3.208375	0.356153	0.196058	89.979000
3.229068	0.355499	0.197419	90.479000
3.250506	0.355192	0.198785	90.979000
3.270084	0.354933	0.200182	91.479000
3.290078	0.354794	0.201505	91.979000
3.311530	0.354402	0.202673	92.479000
3.332854	0.353721	0.203864	92.980000
3.353269	0.352991	0.205194	93.479000
3.373099	0.351713	0.206436	93.980000
3.393830	0.350659	0.207751	94.479000
3.414762	0.350181	0.209053	94.979000
3.435069	0.349847	0.210500	95.479000
3.454382	0.349654	0.211936	95.979000
3.474826	0.349439	0.213367	96.480000
3.494238	0.349264	0.214862	96.979000
3.515032	0.349111	0.216190	97.480000
3.537493	0.349023	0.217544	97.979000
3.559559	0.348721	0.218867	98.479000
3.580947	0.348059	0.220294	98.979000
3.602513	0.347211	0.221684	99.479000
3.623600	0.346432	0.223120	99.979000
3.643960	0.345702	0.224658	100.479000
3.664164	0.345171	0.226250	100.979000
3.684732	0.345057	0.227805	101.479000
3.706189	0.345005	0.229108	101.979000
3.728961	0.344974	0.230495	102.479000
3.750376	0.345083	0.231942	102.980000
3.771795	0.345138	0.233376	103.479000
3.793703	0.345177	0.234771	103.980000
3.815925	0.344872	0.236191	104.479000
3.837938	0.344112	0.237659	104.979000
3.857632	0.342970	0.239036	105.479000
3.877434	0.341813	0.240379	105.979000
3.898364	0.340901	0.241711	106.480000
3.920976	0.340132	0.242990	106.979000
3.942449	0.339455	0.244368	107.480000
3.962223	0.339008	0.245646	107.979000
3.980199	0.338801	0.247051	108.479000
3.997179	0.338860	0.248346	108.979000
4.017525	0.339091	0.249785	109.479000
4.037772	0.339394	0.251286	109.979000
4.056996	0.340066	0.252796	110.479000
4.075944	0.340958	0.254180	110.979000
4.096756	0.341761	0.255714	111.479000
4.117061	0.341964	0.257336	111.980000
4.136627	0.341788	0.258897	112.479000
4.155567	0.341284	0.260336	112.980000
4.175460	0.340585	0.261608	113.479000
4.195397	0.339568	0.262949	113.980000
4.215368	0.338633	0.264347	114.479000
4.234523	0.337437	0.265768	114.979000
4.254398	0.336399	0.267010	115.479000
4.274109	0.335738	0.268238	115.979000
4.295109	0.335210	0.269378	116.480000
4.315474	0.334556	0.270509	116.979000
4.338062	0.334170	0.271759	117.479000
4.359837	0.334220	0.273124	117.979000
4.379224	0.334783	0.274359	118.479000
4.398317	0.335667	0.275697	118.979000
4.419741	0.336824	0.277015	119.479000
4.439064	0.337904	0.278140	119.979000
4.458853	0.338949	0.279224	120.479000
4.480599	0.339986	0.280550	120.979000
4.502511	0.340644	0.281859	121.479000
4.522742	0.340591	0.283155	121.980000
4.544101	0.339789	0.284527	122.479000
4.563931	0.338515	0.285882	122.979000
4.584707	0.337262	0.287274	123.479000
4.605715	0.335814	0.288571	123.979000
4.625377	0.334030	0.290025	124.479000
4.645413	0.332358	0.291520	124.979000
4.665224	0.330712	0.293198	125.479000
4.685175	0.329374	0.294874	125.979000
4.705811	0.328277	0.296405	126.479000
4.725534	0.327596	0.297684	126.979000
4.745715	0.327636	0.298931	127.479000
4.765564	0.328397	0.300204	127.979000
4.785388	0.329349	0.301443	128.479000
4.805289	0.330814	0.302703	128.979000
4.825745	0.332584	0.303899	129.480000
4.846277	0.334420	0.305003	129.979000
4.865947	0.336540	0.305996	130.479000
4.888009	0.338866	0.307098	130.979000
4.908325	0.340930	0.308322	131.479000
4.928127	0.342465	0.309698	131.980000
4.948343	0.343405	0.311257	132.479000
4.969096	0.343858	0.313037	132.979000
4.989893	0.344034	0.314531	133.479000
5.010172	0.343642	0.315945	133.979000
5.030143	0.342450	0.317368	134.479000
5.050479	0.340914	0.318749	134.979000
5.072425	0.338750	0.320267	135.479000
5.093317	0.336201	0.321595	135.979000
5.113001	0.333536	0.322853	136.479000
5.133791	0.330822	0.324062	136.979000
5.152659	0.328365	0.325304	137.479000
5.173259	0.326351	0.326737	137.979000
5.194244	0.324850	0.328189	138.479000
5.215714	0.323803	0.329587	138.979000
5.236774	0.323232	0.331001	139.480000
5.254408	0.323345	0.332556	139.979000
5.275361	0.324186	0.333903	140.479000
5.295255	0.325492	0.335145	140.979000
5.314539	0.327232	0.336179	141.479000
5.334749	0.329317	0.337092	141.980000
5.355188	0.332079	0.338152	142.479000
5.377997	0.335351	0.339346	142.980000
5.399463	0.338808	0.340534	143.479000
5.419212	0.342434	0.341764	143.979000
5.439011	0.345661	0.343149	144.479000
5.459366	0.348645	0.344618	144.979000
5.479439	0.351456	0.346096	145.479000
5.500330	0.353599	0.347583	145.979000
5.521626	0.354964	0.349108	146.479000
5.540249	0.355516	0.350645	146.979000
5.558941	0.355344	0.352122	147.479000
5.579656	0.354695	0.353554	147.979000
5.599163	0.353307	0.354994	148.480000
5.619593	0.351143	0.356358	148.979000
5.642298	0.348687	0.357757	149.479000
5.664893	0.345822	0.359244	149.979000
5.683126	0.342619	0.360794	150.479000
5.703451	0.339106	0.362390	150.979000
5.724622	0.335593	0.363962	151.479000
5.744147	0.332066	0.365414	151.980000
5.764338	0.328718	0.366768	152.479000
5.782947	0.325514	0.368151	152.979000
5.802470	0.322770	0.369609	153.479000
5.822650	0.320768	0.370974	153.979000
5.845115	0.319432	0.372018	154.479000
5.863902	0.318524	0.372910	154.979000
5.884922	0.318420	0.373877	155.479000
5.905917	0.319113	0.375003	155.979000
5.927121	0.320800	0.376227	156.479000
5.945697	0.323372	0.377463	156.979000
5.968529	0.326728	0.378706	157.479000
5.990056	0.330895	0.379911	157.979000
6.007612	0.335500	0.381125	158.480000
6.023099	0.340110	0.382335	158.979000
6.043151	0.344983	0.383575	159.479000
6.066195	0.349958	0.384856	159.979000
6.082800	0.355151	0.386218	160.479000
6.100418	0.360115	0.387456	160.979000
6.119679	0.364623	0.388631	161.480000
6.139133	0.368813	0.389906	161.979000
6.159597	0.372610	0.391236	162.479000
6.179216	0.375805	0.392573	162.979000
6.196781	0.378483	0.393946	163.479000
6.214894	0.380491	0.395106	163.979000
6.234112	0.381735	0.396440	164.479000
6.253888	0.382207	0.397848	164.980000
6.269817	0.381831	0.399154	165.479000
6.288681	0.380969	0.400569	165.979000
6.306964	0.379936	0.401999	166.479000
6.328462	0.378500	0.403482	166.980000
6.346906	0.376591	0.405045	167.479000
6.364759	0.373876	0.406602	167.979000
6.384265	0.370345	0.407946	168.480000
6.401033	0.366767	0.409221	168.979000
6.423697	0.362959	0.410599	169.479000
6.445089	0.358536	0.411948	169.979000
6.462881	0.353905	0.413207	170.479000
6.480792	0.348801	0.414543	170.979000
6.498648	0.343568	0.415768	171.479000
6.517386	0.338552	0.417006	171.979000
6.536603	0.333716	0.418306	172.479000
6.557023	0.328683	0.419710	172.979000
6.575063	0.324417	0.421130	173.479000
6.593093	0.320583	0.422469	173.979000
6.612234	0.317235	0.423627	174.479000
6.630943	0.314874	0.424660	174.980000
6.652361	0.313195	0.425766	175.479000
6.671304	0.312391	0.426837	175.979000
6.690363	0.312564	0.428013	176.479000
6.707672	0.313537	0.429359	176.980000
6.727317	0.315412	0.430669	177.480000
6.747976	0.318074	0.431676	177.979000
6.767351	0.321547	0.432493	178.480000
6.787666	0.325942	0.433301	178.979000
6.805191	0.331292	0.434203	179.479000
6.826874	0.337430	0.435125	179.979000
6.847031	0.344127	0.436008	180.479000
6.866199	0.351274	0.437058	180.979000
6.886829	0.358930	0.438137	181.479000
6.906488	0.366506	0.439325	181.979000
6.926019	0.374249	0.440619	182.479000
6.946118	0.381925	0.441869	182.979000
6.966256	0.389362	0.443093	183.479000
6.986213	0.396384	0.444401	183.980000
7.005100	0.402927	0.445650	184.479000
7.026896	0.409168	0.446994	184.979000
7.048085	0.415028	0.448538	185.479000
7.068317	0.420321	0.450235	185.979000
7.087592	0.425122	0.451780	186.479000
7.106647	0.429118	0.453195	186.979000
7.127728	0.432492	0.454278	187.479000
7.147464	0.435158	0.455341	187.979000
7.166503	0.436801	0.456721	188.479000
7.184082	0.437384	0.458228	188.979000
7.203103	0.437268	0.459670	189.479000
7.222737	0.436964	0.461103	189.979000
7.243315	0.436233	0.462608	190.480000
7.261856	0.434908	0.464177	190.979000
7.281750	0.433008	0.465893	191.479000
7.301169	0.430404	0.467706	191.979000
7.321576	0.427419	0.469393	192.479000
7.342478	0.423974	0.470979	192.980000
7.361369	0.420237	0.472247	193.479000
7.380602	0.415940	0.473521	193.980000
7.399016	0.410993	0.474838	194.479000
7.419611	0.405610	0.476187	194.979000
7.439682	0.399610	0.477772	195.479000
7.459203	0.393234	0.479597	195.980000
7.478883	0.386741	0.481385	196.479000
7.498358	0.380024	0.482975	196.979000
7.518433	0.373216	0.484435	197.479000
7.538458	0.366167	0.485957	197.979000
7.558945	0.359005	0.487333	198.480000
7.580221	0.351754	0.488650	198.979000
7.602032	0.344710	0.489951	199.479000
7.624146	0.337845	0.491186	199.979000
7.644239	0.331440	0.492286	200.480000
7.665358	0.325600	0.493492	200.979000
7.685065	0.320224	0.494653	201.479000
7.705585	0.315616	0.495838	201.979000
7.725943	0.311434	0.497007	202.479000
7.746633	0.308285	0.498165	202.981000
7.767572	0.306427	0.499311	203.479000
7.788801	0.305941	0.500528	203.980000
7.809696	0.306759	0.501517	204.479000
7.831118	0.308693	0.502489	204.980000
7.852693	0.311542	0.503465	205.479000
7.873035	0.316068	0.504431	205.979000
7.892661	0.322151	0.505431	206.479000
7.911490	0.329582	0.506581	206.979000
7.930162	0.338109	0.507792	207.479000
7.947951	0.347805	0.508737	207.979000
7.967112	0.358211	0.509665	208.479000
7.986331	0.369009	0.510649	208.979000
8.006994	0.380242	0.511803	209.480000
8.027519	0.391898	0.512909	209.979000
8.046861	0.403427	0.513960	210.480000
8.065542	0.414847	0.515185	210.979000
8.084119	0.426255	0.516407	211.480000
8.105175	0.437568	0.517565	211.979000
8.125711	0.448732	0.518657	212.479000
8.146437	0.459769	0.519758	212.979000
8.166156	0.470414	0.520830	213.479000
8.185536	0.480183	0.521935	213.980000
8.205678	0.489193	0.523036	214.479000
8.224280	0.497893	0.524189	214.979000
8.244016	0.505979	0.525436	215.479000
8.264832	0.513315	0.526788	215.979000
8.283798	0.519968	0.528272	216.479000
8.304180	0.525754	0.529792	216.980000
8.324715	0.530848	0.531272	217.479000
8.343655	0.535513	0.532629	217.979000
8.362609	0.539985	0.534089	218.479000
8.382473	0.543578	0.535515	218.979000
8.402411	0.546330	0.536853	219.480000
8.423124	0.548720	0.538261	219.979000
8.444808	0.550334	0.539787	220.480000
8.463653	0.550948	0.541186	220.979000
8.484259	0.551012	0.542511	221.479000
8.505115	0.550623	0.543854	221.979000
8.525473	0.549517	0.545272	222.479000
8.545444	0.547577	0.546891	222.979000
8.564424	0.545225	0.548603	223.479000
8.583618	0.542475	0.550285	223.980000
8.604506	0.539218	0.551776	224.479000
8.625681	0.535118	0.553258	224.979000
8.646161	0.530833	0.554769	225.479000
8.667059	0.526009	0.556413	225.980000
8.686975	0.521296	0.558236	226.479000
8.707870	0.516270	0.559943	226.979000
8.727655	0.511156	0.561631	227.479000
8.749475	0.505602	0.563315	227.979000
8.769206	0.499638	0.564899	228.479000
8.788828	0.493395	0.566524	228.979000
8.808605	0.486943	0.568224	229.480000
8.826789	0.480203	0.569951	229.979000
8.846573	0.473060	0.571336	230.479000
8.864011	0.465565	0.572955	230.979000
8.882959	0.457648	0.574543	231.479000
8.902362	0.449438	0.576312	231.979000
8.921994	0.441101	0.578044	232.479000
8.942545	0.432677	0.579636	232.979000
8.962308	0.424107	0.581015	233.479000
8.982467	0.415302	0.582410	233.980000
9.001666	0.406330	0.584016	234.479000
9.021151	0.397432	0.585669	234.980000
9.040120	0.388393	0.587251	235.479000
9.059396	0.379513	0.588661	235.979000
9.078168	0.370558	0.589972	236.479000
9.098627	0.361333	0.591172	236.979000
9.118497	0.352205	0.592495	237.479000
9.138054	0.343657	0.593789	237.979000
9.158212	0.335442	0.595078	238.479000
9.177874	0.327643	0.596403	238.979000
9.198514	0.320148	0.597482	239.479000
9.218756	0.313368	0.598488	239.979000
9.239584	0.307631	0.599235	240.480000
9.258088	0.303046	0.599764	240.979000
9.277588	0.299547	0.600457	241.479000
9.298071	0.297366	0.601278	241.979000
9.319165	0.296203	0.602127	242.479000
9.338526	0.296380	0.602839	242.979000
9.358473	0.298327	0.603486	243.479000
9.381452	0.301867	0.604198	243.979000
9.400701	0.306784	0.605093	244.479000
9.421161	0.313272	0.605952	244.979000
9.438470	0.321385	0.606775	245.479000
9.459505	0.331402	0.607596	245.980000
9.479977	0.342685	0.608395	246.479000
9.500296	0.354813	0.609135	246.979000
9.521341	0.367749	0.609896	247.479000
9.542307	0.381625	0.610653	247.979000
9.562401	0.396356	0.611549	248.479000
9.580282	0.411707	0.612462	248.979000
9.600800	0.427365	0.613453	249.479000
9.618997	0.443182	0.614622	249.979000
9.638559	0.459211	0.615834	250.479000
9.658719	0.475407	0.617020	250.979000
9.678793	0.491674	0.618146	251.479000
9.697823	0.507557	0.619357	251.979000
9.717989	0.522996	0.620499	252.479000
9.738419	0.538233	0.621701	252.979000
9.759232	0.553246	0.622799	253.479000
9.779590	0.568153	0.623793	253.979000
9.800189	0.582602	0.625016	254.479000
9.818671	0.596494	0.626176	254.979000
9.840010	0.610031	0.627345	255.479000
9.859973	0.623032	0.628699	255.979000
9.879347	0.635641	0.630067	256.479000
9.899735	0.647821	0.631489	256.979000
9.918173	0.659209	0.632914	257.479000
9.939423	0.670201	0.634262	257.979000
9.959968	0.680654	0.635559	258.479000
9.979684	0.690515	0.636828	258.979000
9.998692	0.700062	0.638160	259.480000
10.018163	0.709213	0.639606	259.979000
10.037362	0.717694	0.640852	260.480000
10.057905	0.725447	0.642107	260.979000
10.077227	0.732203	0.643454	261.480000
10.096706	0.738494	0.644856	261.979000
10.116583	0.744491	0.646276	262.479000
10.133285	0.750089	0.647593	262.979000
10.153963	0.755083	0.648827	263.479000
